SDS 2.3	Background Spectra	1.0
Well Nb	1	2	3	4	5	6	7	8	9	10	11	12	13	14	15	16	17	18	19	20	21	22	23	24	25	26	27	28	29	30	31	32
1	821.2143	825.5714	842.5714	860.4286	864.9286	879.9286	888.6429	906.0	916.5714	922.4286	924.4286	928.5714	925.2143	926.9286	919.4286	915.6429	908.0	902.5714	903.9286	904.0714	899.2857	897.0	892.5	890.6429	892.3571	888.5714	885.3571	882.7143	882.8571	880.8571	882.3571	874.2857
2	819.5	830.5714	846.7857	873.6429	885.6429	903.3571	923.1429	933.5	946.0	959.2857	963.2143	967.6429	968.0714	960.2857	955.7857	951.2143	943.6429	934.2143	932.1429	932.4286	929.7857	925.5	922.8571	916.5714	915.8571	916.6429	918.7143	912.9286	905.5	912.9286	901.2143	900.7857
3	821.6429	832.0714	849.2857	860.4286	869.7857	881.8571	894.5714	907.0	921.1429	924.6429	931.5714	932.5	928.2857	932.0714	922.8571	914.7143	912.3571	912.2143	909.1429	908.0	906.5	896.3571	898.1429	899.8571	887.2857	888.0	890.2143	886.9286	890.2857	882.1429	881.2857	879.4286
4	816.5	831.2143	849.1429	863.4286	873.0	882.2143	897.8571	905.7857	914.6429	921.2143	929.3571	932.0	931.7143	927.7143	921.2857	922.1429	916.6429	912.0	903.4286	898.6429	905.3571	899.7857	894.3571	894.7857	893.2143	897.5	883.8571	887.5714	885.3571	886.1429	876.7143	874.7857
5	819.4286	830.6429	846.9286	860.8571	870.9286	884.0	897.0714	912.6429	920.0714	925.7857	929.6429	931.8571	930.1429	927.8571	925.2143	918.3571	911.2143	911.0714	903.6429	904.2143	906.3571	896.3571	896.5	892.7143	892.4286	890.1429	884.2143	891.5	881.4286	885.2857	882.9286	874.2857
6	815.9286	835.6429	845.9286	863.2143	868.2143	888.6429	899.5	908.8571	922.0714	928.5	935.6429	942.7143	933.6429	934.2857	926.6429	926.7143	919.1429	914.9286	910.1429	904.8571	906.7857	898.5	897.2143	899.0714	901.6429	890.3571	889.7143	891.6429	891.3571	883.8571	885.2857	879.8571
7	825.4286	830.5	846.0714	863.7143	868.0	887.5	896.3571	904.0	918.2857	925.5	927.8571	931.2143	930.1429	930.6429	919.9286	920.5	916.2143	908.1429	909.0714	903.8571	900.5714	898.4286	893.0	891.3571	893.5714	887.9286	889.4286	886.6429	888.6429	881.7143	881.4286	876.1429
8	818.5	836.0	854.2857	870.5714	872.5	894.5	904.9286	912.0	924.0	933.2143	938.4286	939.0714	934.0	938.0714	929.7143	927.0714	917.7143	910.5714	910.1429	910.0714	905.0714	898.5	904.0	896.8571	895.5714	896.4286	896.9286	891.6429	889.2143	890.5	887.7143	876.2857
9	820.9286	832.5714	851.5	863.5	869.5714	878.8571	898.5714	904.1429	913.9286	918.1429	927.2143	922.1429	926.1429	921.2857	917.0	916.7143	906.7143	905.7143	904.2143	898.6429	899.7857	894.0714	892.6429	888.6429	885.0	886.4286	883.0714	885.7143	882.9286	879.5	876.0	881.3571
10	820.3571	842.5714	854.4286	859.7857	865.1429	885.4286	894.5714	900.7857	920.3571	915.5	922.6429	928.5714	925.1429	928.5714	917.5714	917.8571	910.9286	908.5	909.1429	900.9286	894.5714	892.4286	892.1429	898.2143	891.1429	884.5714	881.8571	886.0714	884.4286	877.4286	881.8571	876.5714
11	818.0714	833.6429	849.5	863.3571	872.3571	887.7857	900.1429	907.6429	916.0	928.0714	931.7857	931.7857	932.1429	929.7857	921.7143	919.5	912.5	907.1429	905.4286	905.7143	903.4286	898.5714	894.5	895.2143	889.3571	891.5714	888.2143	888.9286	882.7857	888.1429	881.4286	874.2143
12	818.7857	837.2143	855.7857	863.2857	871.7857	880.9286	893.6429	903.2857	908.7143	920.3571	922.2143	929.0714	925.2857	923.0714	920.1429	914.6429	910.2143	906.7143	907.7857	903.0714	900.2143	893.6429	892.7143	888.1429	892.1429	887.5	888.9286	882.1429	882.7857	878.8571	879.5	881.1429
13	821.2857	832.2143	857.4286	865.7143	871.5	887.2143	903.0	907.1429	920.2857	924.6429	935.7143	932.2143	932.3571	931.6429	921.2857	921.0714	915.1429	908.7143	908.4286	903.4286	905.4286	898.2143	897.0	894.6429	895.9286	888.7857	888.8571	886.2143	886.0	881.5	876.0714	873.6429
14	816.2143	841.6429	855.2857	873.0	876.7857	887.8571	909.1429	914.2143	920.2143	928.1429	936.0714	935.5	937.9286	933.4286	930.2143	928.2143	918.2143	913.6429	911.2857	907.3571	905.9286	901.0714	903.9286	896.5714	888.5714	890.8571	891.8571	889.0	890.1429	887.0714	882.5714	873.7143
15	816.6429	840.2143	850.6429	870.4286	876.9286	886.2857	899.5714	911.0714	921.7857	930.2143	934.7143	940.0	933.3571	933.1429	926.7857	926.1429	913.7143	916.7857	914.9286	907.7857	904.5714	898.2857	902.4286	901.2857	896.8571	892.9286	898.9286	891.5714	889.1429	884.3571	883.5	884.7857
16	819.7857	845.3571	860.1429	871.1429	877.1429	891.8571	908.9286	926.1429	937.7857	941.8571	953.0	954.2143	956.3571	948.5714	943.7857	940.7143	935.2857	927.2143	924.7857	924.2143	922.6429	917.8571	909.0714	910.2857	913.8571	910.0	909.0714	906.1429	908.4286	900.5	895.8571	898.9286
17	820.7857	842.5714	851.1429	874.0	878.9286	894.5714	899.8571	914.4286	926.3571	936.4286	938.6429	943.2857	940.6429	939.2857	935.3571	928.9286	921.2857	914.7143	911.6429	913.1429	909.6429	908.0	903.5714	898.0	892.5714	898.7857	894.2857	898.4286	890.2857	892.0	888.5	879.0
18	822.2857	837.2143	858.4286	880.9286	888.7143	904.0714	920.2857	935.3571	943.7857	952.5	961.7857	968.9286	961.4286	959.2857	956.0714	949.7857	944.8571	935.9286	933.7143	928.0714	929.5	922.9286	919.3571	919.9286	917.4286	916.7857	914.3571	906.6429	903.9286	903.5714	901.5714	894.5
19	821.0	840.6429	864.8571	873.4286	877.4286	888.2857	896.0714	917.1429	926.1429	934.6429	940.0	936.7857	938.5	936.6429	934.9286	924.5	924.0714	912.9286	917.0714	902.5	913.0	906.8571	901.3571	895.2143	898.4286	894.2143	894.7857	899.2143	897.2143	886.0	882.5	886.5
20	822.5714	835.1429	862.3571	878.7143	882.0	887.8571	903.0	921.7143	927.7143	936.5714	938.9286	946.1429	944.1429	937.7857	937.2143	931.6429	924.0	914.4286	918.7143	914.7143	912.9286	913.2857	903.9286	902.2143	904.4286	899.2857	896.7857	898.5714	897.5714	887.3571	884.1429	879.4286
21	814.9286	841.5714	856.3571	883.3571	882.0	893.0714	906.0714	923.2857	935.0714	939.0	948.5	948.2143	946.2857	951.1429	939.0	935.5	933.7857	916.6429	923.2143	916.8571	915.7143	913.2857	908.6429	905.5714	903.0714	901.2857	898.9286	900.6429	895.9286	895.2143	884.5714	883.3571
22	817.2857	843.9286	865.2143	883.8571	890.9286	901.6429	917.1429	924.8571	941.7857	953.7143	957.5714	959.6429	959.2143	954.5714	948.7857	942.5714	939.2143	934.7857	931.2143	926.6429	926.0714	922.5714	915.9286	912.5714	913.7857	913.6429	907.8571	907.0714	909.7857	901.0	898.4286	890.5714
23	822.7143	842.2857	863.4286	884.5	878.7857	894.6429	908.0714	921.6429	928.7143	936.0714	941.0714	939.5714	937.1429	939.8571	937.2143	931.4286	925.9286	921.5714	918.4286	914.4286	914.9286	910.2143	903.7143	901.5714	900.1429	892.6429	894.2143	893.4286	890.0714	896.5	885.4286	881.5714
24	820.06665	839.0	870.73334	882.06665	883.5333	900.5333	915.8	926.6667	938.86664	948.26666	951.6	957.93335	952.8	949.8	941.4667	942.2	933.86664	928.86664	922.26666	921.13336	915.0	917.0	915.2	914.3333	905.4667	904.6	902.86664	906.5333	903.5333	902.3333	896.8	891.13336
25	822.4286	837.2857	849.2857	870.7857	874.0	885.2857	899.7857	910.0714	914.7857	927.0714	933.4286	929.2857	932.5714	930.4286	928.7857	924.7857	919.3571	914.2857	916.5	906.7857	907.6429	899.1429	897.7143	899.0	894.5	893.1429	892.3571	890.2143	893.9286	892.5714	883.4286	878.4286
26	821.7857	830.1429	850.0714	870.3571	873.3571	893.2143	905.0714	912.7143	922.3571	933.4286	937.5714	940.5714	942.0714	931.5714	936.7857	928.3571	922.1429	918.5714	912.2857	914.9286	909.4286	909.7143	904.1429	900.9286	902.9286	899.9286	899.0	896.2857	896.0	892.2143	887.7857	889.2857
27	817.7143	840.0714	853.7143	868.8571	874.7857	884.0	902.2143	915.2857	925.0714	932.9286	938.9286	940.7143	940.2857	936.0714	929.2143	927.7143	923.8571	918.7143	909.7143	905.7857	910.1429	907.6429	908.3571	902.0714	906.3571	899.0714	896.9286	894.2857	900.0714	892.2143	885.7143	881.5714
28	817.5714	835.6429	845.7143	863.7857	874.7143	886.7143	902.5	914.2857	918.0	934.0	938.4286	936.5714	936.4286	929.9286	930.7857	931.2143	922.8571	916.0	904.8571	914.8571	914.7143	896.7857	902.7857	894.9286	898.2143	896.2143	890.7143	893.6429	895.5	891.7143	887.8571	881.2857
29	820.3571	833.8571	850.5714	861.1429	874.2143	888.4286	903.2857	912.0714	924.7143	934.2143	938.9286	940.5	939.5714	936.2857	930.5714	925.1429	920.7857	920.6429	918.7857	915.0714	910.7857	905.8571	900.6429	903.3571	904.2857	900.6429	895.8571	895.0	892.8571	887.8571	887.8571	886.5
30	826.0714	850.9286	863.8571	880.7143	876.4286	888.2857	902.8571	917.0	925.7857	942.5714	935.5714	942.0	942.8571	940.5714	934.5714	927.1429	923.2143	921.6429	916.8571	916.8571	912.1429	912.1429	902.3571	900.4286	902.3571	902.0	899.2857	894.8571	892.4286	888.7857	892.5	888.5
31	822.4286	851.6429	864.6429	882.5	878.7143	894.1429	905.5714	916.0	925.5714	937.3571	942.7857	936.2143	937.7857	936.2143	929.0	930.9286	928.4286	916.9286	916.2857	918.7143	911.6429	907.2143	901.2857	901.7857	901.5	899.1429	899.1429	893.2857	897.9286	891.3571	889.0714	883.8571
32	822.7857	853.7143	868.4286	887.7143	880.7143	894.2143	908.7857	917.2143	926.7857	939.8571	940.2857	945.4286	942.4286	939.4286	939.2857	934.0714	927.2857	919.0714	917.5	918.3571	909.0	916.5714	910.2143	902.0714	903.7857	899.2143	898.2857	896.8571	896.0714	894.1429	888.6429	879.0
33	819.8571	851.0714	881.7857	889.0714	887.1429	888.5714	902.6429	912.5	928.0714	930.1429	938.8571	940.2143	941.4286	929.6429	932.2143	930.1429	924.3571	913.3571	911.9286	909.7857	911.2857	910.2143	907.1429	900.7857	901.4286	902.0714	896.0714	895.4286	894.2857	892.9286	886.0714	884.9286
34	818.7857	847.5	867.5	880.4286	876.9286	891.6429	903.4286	915.2857	924.5714	931.0	939.3571	942.0	939.3571	937.2143	933.6429	927.8571	923.7143	923.7143	912.8571	917.2143	909.9286	906.4286	898.7857	900.8571	902.2857	898.4286	891.5714	898.0	895.3571	892.2857	888.1429	881.2143
35	822.5714	847.4286	869.4286	881.1429	878.7857	885.6429	902.2857	912.9286	926.5714	933.7857	935.5	938.2857	935.3571	933.0	934.6429	930.3571	921.0714	916.7857	914.7143	914.7857	907.0	901.9286	905.4286	903.2857	900.5	900.2143	893.0	892.7143	896.0714	890.0714	889.6429	880.5
36	817.0	846.3571	870.3571	883.2857	883.4286	897.6429	908.2857	918.5	928.9286	939.3571	945.7857	944.0	949.0	943.0	935.5714	931.3571	929.9286	921.0714	917.3571	919.1429	914.5	913.5	909.7857	905.7143	902.3571	903.5	899.6429	898.0	895.0714	895.8571	894.6429	881.5714
37	823.8571	853.5	872.2857	887.7857	881.6429	896.2857	904.7143	919.9286	924.2857	940.5714	943.3571	945.7857	947.5	939.5714	934.0714	935.2857	929.0714	921.1429	923.5714	920.7143	913.9286	909.4286	907.4286	898.8571	905.6429	900.6429	900.7857	896.0	895.8571	889.6429	893.5714	886.0
38	827.7857	859.0	879.3571	886.8571	882.9286	900.9286	910.1429	924.4286	929.9286	942.2143	949.0	949.9286	946.9286	943.3571	940.4286	940.4286	927.5	931.9286	924.7857	918.7857	923.4286	910.4286	915.7857	903.5714	903.5714	904.1429	902.5	903.6429	898.8571	896.9286	894.7143	897.5
39	819.2857	855.7857	883.9286	890.0	885.7143	892.0714	903.8571	920.9286	931.0	938.7857	949.0714	947.9286	949.8571	942.2143	938.5714	938.0	930.6429	922.5	917.8571	919.7143	911.7143	911.0	910.7143	906.8571	903.7857	904.4286	904.8571	899.5714	896.0	895.9286	891.0	882.2143
40	823.0714	857.4286	881.2143	885.8571	882.5	892.0714	904.0	919.8571	934.0714	940.2143	948.2143	950.7143	944.5	942.3571	943.4286	931.5	927.9286	923.7857	920.8571	918.5	914.1429	912.2857	912.0	903.5714	906.7143	905.2857	900.2857	905.7143	897.7857	894.9286	890.5	889.2143
41	826.2143	855.7857	884.9286	898.4286	886.4286	908.2143	923.6429	940.5714	951.1429	963.2143	975.0714	972.7143	968.2857	965.3571	959.9286	955.6429	943.3571	944.1429	935.3571	936.1429	934.3571	927.2857	922.7143	920.9286	916.8571	918.7857	915.0714	912.2143	911.7857	911.1429	903.0714	896.1429
42	824.3571	856.2857	874.0714	884.2857	888.0	907.3571	915.2857	936.5	940.0714	954.7857	956.7857	958.8571	957.6429	953.5714	956.6429	947.7143	939.4286	930.1429	930.4286	925.2143	925.3571	915.9286	916.1429	911.0714	909.7857	910.7857	909.8571	908.7857	903.3571	900.1429	898.6429	885.3571
43	825.3571	856.9286	875.7143	884.5	886.8571	895.7857	908.0	921.0	930.2857	945.2143	948.4286	948.1429	952.5714	942.1429	940.5714	933.0	929.2143	924.6429	924.5	919.9286	917.5	911.5714	915.0714	902.3571	895.1429	901.2857	903.7857	907.5714	899.5714	894.4286	889.7143	886.0714
44	825.3571	848.0714	877.0	894.3571	887.7143	896.4286	910.6429	925.7857	931.5	940.5714	951.2857	954.3571	945.6429	943.3571	942.2857	942.2143	937.2143	927.9286	925.4286	919.4286	920.2857	917.1429	908.7143	910.2143	909.0714	908.9286	901.0	904.0714	903.0714	894.9286	894.2143	891.2143
45	824.2143	847.2857	866.3571	882.5	885.8571	899.7143	906.7143	929.2857	930.0	945.2143	954.0714	953.0	953.7857	956.0714	945.1429	940.0714	936.5	926.5714	931.5714	923.0	922.7143	922.2143	918.1429	911.2857	911.1429	910.4286	906.0714	904.1429	902.2857	902.5714	896.2143	891.7143
46	820.2143	841.3571	875.3571	899.5714	892.2857	899.4286	914.0	923.0714	938.8571	945.6429	951.5	957.5	952.6429	950.5714	950.7857	940.1429	940.1429	923.7143	937.2857	927.1429	923.8571	922.5	915.2143	911.5714	912.2143	910.2857	909.9286	907.2143	904.1429	901.7143	900.8571	892.7857
47	826.5	849.0714	909.2143	941.2857	911.4286	908.6429	913.0714	937.2857	950.0	955.2143	966.5714	965.4286	963.7857	957.7143	960.5	952.6429	946.5714	936.5	940.6429	933.9286	936.1429	922.2143	929.0	920.3571	917.0714	916.5	914.5714	910.9286	909.8571	903.8571	900.2857	898.5714
48	824.3333	859.2	888.86664	910.06665	900.3333	905.3333	924.5333	937.2	952.0	960.26666	970.06665	973.73334	968.5333	967.13336	962.93335	952.73334	948.73334	945.6667	940.73334	937.0	932.06665	931.8	925.6	923.6	923.93335	916.06665	918.3333	918.6	917.6667	907.6	905.4667	906.0
49	824.0	833.8571	839.0	853.5714	859.7857	870.4286	877.0	886.5714	890.2857	897.0714	902.2143	903.2143	905.2857	903.0	900.5714	901.3571	894.5	892.6429	892.0714	882.2143	887.2143	887.5714	882.7857	880.4286	875.5714	878.3571	876.9286	880.2143	872.7143	873.7143	868.7857	868.2857
50	825.9286	832.2857	852.0	856.0	860.5714	869.4286	873.3571	888.1429	891.9286	897.0714	899.7143	905.5	905.1429	897.9286	902.4286	896.1429	895.7143	892.2857	885.9286	888.7143	881.3571	882.7857	879.7857	879.2143	877.0714	878.6429	874.5714	875.0714	872.7143	880.5714	872.5	873.1429
51	824.8571	840.0714	843.2143	854.3571	855.2143	872.2143	880.4286	885.2857	891.0	899.6429	901.1429	905.0714	900.5	906.4286	898.9286	899.9286	890.7143	888.7857	886.9286	883.7143	886.2857	883.7857	882.5	879.2857	878.4286	878.4286	874.0	877.2857	877.2143	872.8571	870.3571	872.3571
52	825.2857	837.4286	841.7143	857.5	868.4286	874.9286	887.5	901.0	909.3571	912.7143	912.0714	920.4286	919.2857	919.6429	912.0	908.5714	902.7143	906.7143	905.8571	898.6429	898.1429	891.6429	890.7143	885.5714	889.1429	888.5714	885.2857	890.3571	884.0714	880.2857	876.2857	876.0
53	823.0714	836.0714	848.2143	853.6429	873.3571	875.7143	889.9286	893.7857	904.9286	915.5714	913.9286	916.2857	919.7143	920.7857	911.0	909.7143	903.1429	900.2143	896.0714	898.5	892.7143	894.0714	894.0	887.7857	890.8571	886.0	881.7857	882.2143	883.2143	881.3571	876.7857	874.4286
54	824.2857	837.8571	849.2143	861.7143	867.1429	875.1429	887.1429	897.0	909.5	913.2857	916.1429	918.6429	917.7143	919.4286	911.8571	910.0	909.1429	902.7143	895.5714	897.1429	890.7857	895.1429	889.1429	894.9286	885.8571	887.7857	883.2857	882.1429	878.1429	881.5714	876.2143	872.7143
55	818.9286	837.7857	853.3571	863.0	857.5	875.7857	881.5	894.9286	898.3571	904.2143	909.5	913.7857	909.4286	906.3571	906.0714	902.0	899.2143	895.7857	891.5	894.7857	886.7143	886.8571	887.1429	885.8571	878.9286	880.5714	880.6429	876.7857	882.1429	873.5	872.8571	869.2857
56	824.6429	837.7857	853.3571	861.8571	869.0714	881.9286	893.0714	902.3571	912.7857	919.7857	927.3571	923.8571	928.5714	922.4286	917.9286	917.2857	912.9286	912.5714	903.0	902.4286	896.2143	899.0	896.0714	895.8571	893.1429	895.1429	892.5	892.1429	888.5714	881.5714	885.9286	879.5714
57	816.7857	840.9286	856.2143	860.7143	868.0	874.1429	889.7857	892.4286	907.0	909.7857	914.5714	916.0	916.5	915.5714	912.2143	906.4286	905.3571	902.7143	898.3571	900.7857	893.2857	895.2143	891.6429	889.0714	889.2143	887.1429	886.7143	886.6429	876.5	881.2857	876.7857	878.2143
58	817.0	839.9286	845.8571	862.7857	859.0	867.5714	881.7857	887.2857	897.9286	902.5	909.1429	911.2143	905.2143	904.8571	901.7857	904.6429	900.1429	895.2857	890.0714	888.3571	889.7143	888.7143	881.5	881.7143	881.2143	879.1429	880.9286	884.2143	874.9286	877.2143	871.2857	871.1429
59	819.0	839.8571	854.2857	861.3571	859.2143	871.2143	883.0	895.0	900.1429	903.8571	907.6429	905.1429	908.2143	902.4286	902.1429	904.3571	896.5	892.5714	895.5	890.5	891.9286	886.9286	887.5	883.1429	880.2143	880.1429	877.3571	874.7857	875.1429	875.1429	870.5	870.0
60	820.1429	840.7143	853.9286	861.7857	867.7143	875.1429	883.2143	891.3571	896.5	903.4286	910.7857	911.5	917.2143	908.1429	905.4286	903.7143	901.2857	896.5	897.9286	896.6429	890.5	892.5714	879.2143	888.2143	884.7857	884.7857	883.3571	875.2143	880.7143	870.2143	874.9286	867.8571
61	824.9286	839.2857	852.6429	859.8571	868.1429	880.0714	886.0714	895.3571	900.0	907.7143	909.7143	912.2857	906.7143	911.0714	908.3571	900.6429	898.5	895.1429	890.7143	893.8571	892.2857	891.9286	887.7857	884.4286	887.0714	885.2143	881.4286	877.5	877.4286	874.5714	873.2143	872.5
62	819.5	838.5714	849.7857	859.5	867.4286	876.9286	882.2857	893.2857	904.3571	911.6429	914.1429	912.2857	916.6429	910.0	908.5	908.1429	899.9286	896.4286	888.6429	900.7857	894.0	893.2857	892.0	887.7857	884.2143	887.0714	879.1429	887.0714	875.6429	876.5714	873.6429	868.5714
63	822.5	843.7857	861.0714	871.7857	872.0	879.7143	891.7143	900.8571	912.2857	914.7143	925.0714	920.5714	918.7857	919.5714	920.5714	914.7143	907.3571	905.4286	902.8571	902.5714	892.9286	899.2143	896.5714	892.5	888.9286	888.1429	886.2857	887.8571	886.7143	877.6429	881.2143	873.4286
64	827.8571	842.6429	856.0	864.5	868.3571	885.5	891.7857	902.5	918.2857	919.9286	924.2143	923.8571	927.6429	922.8571	919.9286	920.6429	911.9286	908.5	904.5714	903.6429	906.6429	899.4286	895.8571	898.9286	889.9286	896.2857	888.2143	890.3571	888.5714	887.0	880.7857	874.0714
65	824.7143	849.5714	862.0714	866.9286	869.0	878.8571	887.2143	896.1429	906.1429	906.3571	917.7143	913.5	913.5	911.1429	910.4286	910.9286	902.3571	895.8571	897.4286	893.2857	889.0714	886.5	888.3571	881.2857	887.8571	882.7143	886.2857	877.7857	881.5	882.7143	876.5	874.9286
66	827.4286	845.9286	864.8571	860.6429	874.0714	880.5714	891.1429	903.7143	908.0	915.0714	920.4286	922.6429	916.2143	917.3571	914.7143	913.5714	905.5	905.6429	904.0714	900.1429	898.0	898.6429	893.5	889.9286	890.8571	890.7857	888.3571	883.7143	888.1429	881.9286	879.6429	876.5714
67	813.8571	837.0	855.3571	861.5714	869.2143	875.7857	888.7143	898.8571	904.7143	917.0714	916.2857	922.1429	925.2143	919.0	918.1429	909.5	907.7143	901.2143	901.7857	897.4286	893.7143	893.0	893.8571	888.2857	892.0714	885.7857	881.7857	885.5714	882.7857	882.2857	878.4286	876.7143
68	826.8571	852.2857	873.8571	873.8571	869.3571	879.0	889.5	905.0	912.1429	920.3571	923.2143	921.7143	923.7143	921.0	915.3571	913.7857	909.3571	904.3571	902.8571	899.7143	897.4286	898.5714	898.3571	894.2143	888.9286	887.2143	887.2857	885.4286	884.9286	882.2857	879.1429	879.2857
69	823.1429	843.4286	858.1429	872.2857	877.3571	887.6429	899.3571	912.0714	922.2143	927.0714	932.2143	930.3571	932.9286	926.7143	926.1429	920.5714	910.7143	921.0	915.7857	909.0	913.4286	908.7857	901.9286	901.6429	901.7143	900.7143	895.7143	898.7857	897.8571	894.4286	892.5	885.3571
70	822.2143	835.5714	859.3571	867.3571	871.2857	883.5714	889.2143	901.7857	902.2857	913.2143	920.0	918.0	922.2857	915.2857	918.1429	916.5714	911.5	905.7143	908.6429	905.0714	901.0	899.7143	894.0	893.8571	891.0714	887.3571	884.1429	886.1429	883.5714	882.7857	877.0	878.0714
71	824.0	852.9286	866.7857	877.5	872.1429	882.3571	889.5714	896.5	911.1429	910.7857	921.7857	915.8571	916.0714	914.2857	911.7857	910.5714	905.2857	899.2857	901.9286	900.2857	898.9286	891.8571	894.2857	888.5	887.7857	885.5	888.2143	888.3571	878.8571	879.7857	877.3571	874.2143
